PE UV       SUBTECH     SPECTRUM    ASCII       PEDS        4.00        
   -1
180627-8 mid alpha.Sample.asc
18/06/27
22:28:46.00
18/06/27
22:28:46.00
Analyst
34s15gmt test
350.000000
1
Lambda 950
950L1201053
PerkinElmer UV WinLab 6.0.4.0738 / 1.61.00 Lambda 900

0
0
3350/16 889.8/4
0
0
VIS
1
1
1
CommonBeamDepol,RBeamAtt,SBeamAtt,universal reflectance
0
0
0
0
Program
 
0
3350/0.28 889.8/0.28
0
0
0
 
 
 
0
 
889.8
150
889.8
Front
31
on
3350/S:100 3350/R:100
 
0
0
0
 
0
 
 
 
0
 
 
0
0
8.0
4.00
4.00
False
False
202L1112213
 
0
0


0
0
#HDR
-1
-1
#GR
nm
%R
1.0
0.0
880.000000
-1.000000
531
8
38.608364
4.471531
#DATA
880.000000	19.391813
879.000000	19.341861
878.000000	19.257832
877.000000	19.192732
876.000000	19.112843
875.000000	19.044391
874.000000	18.977359
873.000000	18.909964
872.000000	18.834836
871.000000	18.762199
870.000000	18.682786
869.000000	18.619686
868.000000	18.546558
867.000000	18.480927
866.000000	18.392766
865.000000	18.324580
864.000000	18.247086
863.000000	18.172031
862.000000	18.108274
861.000000	18.031525
860.000000	17.960716
859.000000	17.875562
858.000000	17.803972
857.000000	17.717679
856.000000	17.645017
855.000000	17.571591
854.000000	17.490511
853.000000	17.411692
852.000000	17.330640
851.000000	17.249923
850.000000	17.178584
849.000000	17.095415
848.000000	17.012012
847.000000	16.933829
846.000000	16.865752
845.000000	16.784712
844.000000	16.716660
843.000000	16.614802
842.000000	16.541380
841.000000	16.465938
840.000000	16.381728
839.000000	16.316194
838.000000	16.216812
837.000000	16.146700
836.000000	16.043697
835.000000	15.963137
834.000000	15.874849
833.000000	15.815625
832.000000	15.730428
831.000000	15.648835
830.000000	15.557435
829.000000	15.484029
828.000000	15.378631
827.000000	15.314579
826.000000	15.213921
825.000000	15.145143
824.000000	15.048633
823.000000	14.982199
822.000000	14.889660
821.000000	14.809293
820.000000	14.717977
819.000000	14.638566
818.000000	14.554534
817.000000	14.458650
816.000000	14.377006
815.000000	14.283491
814.000000	14.209853
813.000000	14.116071
812.000000	14.027229
811.000000	13.944723
810.000000	13.857591
809.000000	13.770218
808.000000	13.693112
807.000000	13.595935
806.000000	13.506346
805.000000	13.424264
804.000000	13.329732
803.000000	13.241241
802.000000	13.146790
801.000000	13.062140
800.000000	12.977518
799.000000	12.883061
798.000000	12.791183
797.000000	12.711727
796.000000	12.611546
795.000000	12.535431
794.000000	12.441066
793.000000	12.353551
792.000000	12.262901
791.000000	12.163948
790.000000	12.074601
789.000000	11.989837
788.000000	11.903603
787.000000	11.807951
786.000000	11.715572
785.000000	11.625889
784.000000	11.533556
783.000000	11.441991
782.000000	11.347344
781.000000	11.265848
780.000000	11.176396
779.000000	11.084068
778.000000	10.988143
777.000000	10.902684
776.000000	10.820913
775.000000	10.729345
774.000000	10.634943
773.000000	10.536693
772.000000	10.462612
771.000000	10.362142
770.000000	10.275386
769.000000	10.190975
768.000000	10.100525
767.000000	10.003644
766.000000	9.915931
765.000000	9.832245
764.000000	9.746953
763.000000	9.651622
762.000000	9.566064
761.000000	9.473370
760.000000	9.386827
759.000000	9.305719
758.000000	9.211727
757.000000	9.119060
756.000000	9.040037
755.000000	8.953939
754.000000	8.864091
753.000000	8.780170
752.000000	8.695794
751.000000	8.611648
750.000000	8.527156
749.000000	8.439975
748.000000	8.359212
747.000000	8.274882
746.000000	8.189581
745.000000	8.105359
744.000000	8.020370
743.000000	7.941740
742.000000	7.864354
741.000000	7.779375
740.000000	7.699251
739.000000	7.614943
738.000000	7.536883
737.000000	7.460841
736.000000	7.385501
735.000000	7.302905
734.000000	7.229628
733.000000	7.154287
732.000000	7.078927
731.000000	7.000299
730.000000	6.927128
729.000000	6.849907
728.000000	6.776041
727.000000	6.706205
726.000000	6.635505
725.000000	6.562306
724.000000	6.490147
723.000000	6.423244
722.000000	6.356684
721.000000	6.288342
720.000000	6.218522
719.000000	6.153578
718.000000	6.086084
717.000000	6.023001
716.000000	5.962215
715.000000	5.906517
714.000000	5.841963
713.000000	5.778881
712.000000	5.718939
711.000000	5.663148
710.000000	5.604337
709.000000	5.546709
708.000000	5.490624
707.000000	5.438918
706.000000	5.386459
705.000000	5.335994
704.000000	5.289131
703.000000	5.239965
702.000000	5.192334
701.000000	5.144366
700.000000	5.102355
699.000000	5.054829
698.000000	5.015583
697.000000	4.972758
696.000000	4.934652
695.000000	4.896018
694.000000	4.856924
693.000000	4.824548
692.000000	4.793760
691.000000	4.758700
690.000000	4.728683
689.000000	4.698323
688.000000	4.668036
687.000000	4.645478
686.000000	4.617791
685.000000	4.598541
684.000000	4.577957
683.000000	4.559149
682.000000	4.541542
681.000000	4.526037
680.000000	4.513690
679.000000	4.501687
678.000000	4.493793
677.000000	4.487698
676.000000	4.478045
675.000000	4.473817
674.000000	4.471761
673.000000	4.471531
672.000000	4.474867
671.000000	4.477210
670.000000	4.484139
669.000000	4.491898
668.000000	4.502802
667.000000	4.516528
666.000000	4.529593
665.000000	4.543570
664.000000	4.561825
663.000000	4.586334
662.000000	4.608281
661.000000	4.632356
660.000000	4.662071
659.000000	4.692511
658.000000	4.722285
657.000000	4.757731
656.000000	4.794087
655.000000	4.834623
654.000000	4.877387
653.000000	4.921222
652.000000	4.967198
651.000000	5.015455
650.000000	5.066336
649.000000	5.121915
648.000000	5.175074
647.000000	5.234047
646.000000	5.296459
645.000000	5.360105
644.000000	5.426816
643.000000	5.494519
642.000000	5.563561
641.000000	5.638185
640.000000	5.721521
639.000000	5.798649
638.000000	5.880797
637.000000	5.966145
636.000000	6.051013
635.000000	6.138536
634.000000	6.228866
633.000000	6.325565
632.000000	6.423797
631.000000	6.522541
630.000000	6.626643
629.000000	6.733058
628.000000	6.843724
627.000000	6.954089
626.000000	7.068695
625.000000	7.182939
624.000000	7.300484
623.000000	7.420636
622.000000	7.545892
621.000000	7.671256
620.000000	7.799407
619.000000	7.935052
618.000000	8.069165
617.000000	8.206491
616.000000	8.345996
615.000000	8.484407
614.000000	8.626766
613.000000	8.779989
612.000000	8.930451
611.000000	9.085166
610.000000	9.242021
609.000000	9.399995
608.000000	9.559686
607.000000	9.720292
606.000000	9.888418
605.000000	10.054048
604.000000	10.218391
603.000000	10.390828
602.000000	10.569739
601.000000	10.747562
600.000000	10.930058
599.000000	11.113110
598.000000	11.299032
597.000000	11.482774
596.000000	11.669882
595.000000	11.860256
594.000000	12.049225
593.000000	12.242648
592.000000	12.443767
591.000000	12.645870
590.000000	12.851789
589.000000	13.055039
588.000000	13.260971
587.000000	13.468430
586.000000	13.672582
585.000000	13.878019
584.000000	14.088643
583.000000	14.305185
582.000000	14.522585
581.000000	14.743265
580.000000	14.965800
579.000000	15.183226
578.000000	15.407863
577.000000	15.633568
576.000000	15.856573
575.000000	16.077631
574.000000	16.299292
573.000000	16.535400
572.000000	16.771538
571.000000	16.995611
570.000000	17.229988
569.000000	17.466884
568.000000	17.705226
567.000000	17.942223
566.000000	18.169516
565.000000	18.406227
564.000000	18.643559
563.000000	18.879039
562.000000	19.125632
561.000000	19.380753
560.000000	19.632804
559.000000	19.876157
558.000000	20.124814
557.000000	20.366212
556.000000	20.609973
555.000000	20.854831
554.000000	21.097552
553.000000	21.340520
552.000000	21.585711
551.000000	21.827036
550.000000	22.071484
549.000000	22.319384
548.000000	22.563973
547.000000	22.816485
546.000000	23.069221
545.000000	23.307731
544.000000	23.542782
543.000000	23.783488
542.000000	24.031891
541.000000	24.277804
540.000000	24.519317
539.000000	24.766905
538.000000	25.005986
537.000000	25.240620
536.000000	25.477713
535.000000	25.711834
534.000000	25.942116
533.000000	26.180954
532.000000	26.423039
531.000000	26.653489
530.000000	26.887958
529.000000	27.125807
528.000000	27.347844
527.000000	27.569565
526.000000	27.796530
525.000000	28.012649
524.000000	28.238647
523.000000	28.467512
522.000000	28.676430
521.000000	28.894825
520.000000	29.112764
519.000000	29.320870
518.000000	29.539263
517.000000	29.747804
516.000000	29.941955
515.000000	30.143181
514.000000	30.339215
513.000000	30.531708
512.000000	30.728988
511.000000	30.920901
510.000000	31.107705
509.000000	31.287660
508.000000	31.472172
507.000000	31.651682
506.000000	31.817914
505.000000	31.982984
504.000000	32.158535
503.000000	32.324412
502.000000	32.480906
501.000000	32.643734
500.000000	32.800747
499.000000	32.944896
498.000000	33.096733
497.000000	33.260105
496.000000	33.396707
495.000000	33.524061
494.000000	33.674989
493.000000	33.823524
492.000000	33.948772
491.000000	34.069959
490.000000	34.203442
489.000000	34.335802
488.000000	34.459338
487.000000	34.559916
486.000000	34.647353
485.000000	34.737936
484.000000	34.834384
483.000000	34.946110
482.000000	35.033747
481.000000	35.117108
480.000000	35.189741
479.000000	35.256731
478.000000	35.312067
477.000000	35.353041
476.000000	35.399149
475.000000	35.438907
474.000000	35.466544
473.000000	35.484753
472.000000	35.510560
471.000000	35.543578
470.000000	35.546901
469.000000	35.544309
468.000000	35.548078
467.000000	35.537349
466.000000	35.520822
465.000000	35.494864
464.000000	35.458910
463.000000	35.419077
462.000000	35.378466
461.000000	35.326766
460.000000	35.251584
459.000000	35.191828
458.000000	35.128764
457.000000	35.030468
456.000000	34.922804
455.000000	34.806488
454.000000	34.703892
453.000000	34.577724
452.000000	34.437408
451.000000	34.303294
450.000000	34.145865
449.000000	33.991473
448.000000	33.802320
447.000000	33.613858
446.000000	33.416598
445.000000	33.200573
444.000000	32.979874
443.000000	32.743224
442.000000	32.480517
441.000000	32.222739
440.000000	31.962320
439.000000	31.677618
438.000000	31.364711
437.000000	31.063157
436.000000	30.753130
435.000000	30.414912
434.000000	30.063210
433.000000	29.719033
432.000000	29.335567
431.000000	28.914171
430.000000	28.513488
429.000000	28.085363
428.000000	27.640309
427.000000	27.192622
426.000000	26.724777
425.000000	26.243797
424.000000	25.739679
423.000000	25.218661
422.000000	24.683763
421.000000	24.126849
420.000000	23.565363
419.000000	22.975703
418.000000	22.370345
417.000000	21.768976
416.000000	21.155817
415.000000	20.526257
414.000000	19.873207
413.000000	19.217265
412.000000	18.536829
411.000000	17.841655
410.000000	17.142543
409.000000	16.440990
408.000000	15.731121
407.000000	15.029771
406.000000	14.317833
405.000000	13.612636
404.000000	12.903216
403.000000	12.196667
402.000000	11.493604
401.000000	10.807470
400.000000	10.136379
399.000000	9.478565
398.000000	8.850189
397.000000	8.257299
396.000000	7.701612
395.000000	7.181479
394.000000	6.707078
393.000000	6.269293
392.000000	5.896887
391.000000	5.579049
390.000000	5.333236
389.000000	5.161914
388.000000	5.073101
387.000000	5.061369
386.000000	5.138974
385.000000	5.312965
384.000000	5.585795
383.000000	5.950711
382.000000	6.420205
381.000000	6.987546
380.000000	7.673660
379.000000	8.448237
378.000000	9.636535
377.000000	10.716630
376.000000	11.729212
375.000000	12.842003
374.000000	14.011194
373.000000	15.271977
372.000000	16.573263
371.000000	17.940927
370.000000	19.311618
369.000000	20.742477
368.000000	22.165146
367.000000	23.606106
366.000000	25.011583
365.000000	26.393466
364.000000	27.787201
363.000000	29.058775
362.000000	30.272245
361.000000	31.460743
360.000000	32.601301
359.000000	33.602055
358.000000	34.555887
357.000000	35.442567
356.000000	36.176311
355.000000	36.851691
354.000000	37.421963
353.000000	37.890445
352.000000	38.278571
351.000000	38.497532
350.000000	38.608364
