PE UV       SUBTECH     SPECTRUM    ASCII       PEDS        4.00        
   -1
180627-9 top omega.Sample.asc
18/06/27
23:42:33.00
18/06/27
23:42:33.00
Analyst
34s15gmt test
350.000000
1
Lambda 950
950L1201053
PerkinElmer UV WinLab 6.0.4.0738 / 1.61.00 Lambda 900

0
0
3350/16 889.8/4
0
0
VIS
1
1
1
CommonBeamDepol,RBeamAtt,SBeamAtt,universal reflectance
0
0
0
0
Program
 
0
3350/0.28 889.8/0.28
0
0
0
 
 
 
0
 
889.8
150
889.8
Front
31
on
3350/S:100 3350/R:100
 
0
0
0
 
0
 
 
 
0
 
 
0
0
8.0
4.00
4.00
False
False
202L1112213
 
0
0


0
0
#HDR
-1
-1
#GR
nm
%R
1.0
0.0
880.000000
-1.000000
531
8
36.273328
4.624610
#DATA
880.000000	21.221370
879.000000	21.151172
878.000000	21.077968
877.000000	21.027828
876.000000	20.967677
875.000000	20.901151
874.000000	20.844608
873.000000	20.758481
872.000000	20.692744
871.000000	20.622413
870.000000	20.573074
869.000000	20.500817
868.000000	20.431872
867.000000	20.369348
866.000000	20.296750
865.000000	20.229737
864.000000	20.153683
863.000000	20.091441
862.000000	20.035557
861.000000	19.955551
860.000000	19.882846
859.000000	19.808864
858.000000	19.744223
857.000000	19.684181
856.000000	19.602710
855.000000	19.545167
854.000000	19.480230
853.000000	19.399863
852.000000	19.314200
851.000000	19.246915
850.000000	19.180368
849.000000	19.093254
848.000000	19.022632
847.000000	18.959212
846.000000	18.889173
845.000000	18.808986
844.000000	18.741479
843.000000	18.655175
842.000000	18.577537
841.000000	18.502520
840.000000	18.429272
839.000000	18.343509
838.000000	18.275112
837.000000	18.187029
836.000000	18.135610
835.000000	18.046578
834.000000	17.970423
833.000000	17.885057
832.000000	17.815772
831.000000	17.729041
830.000000	17.655384
829.000000	17.572794
828.000000	17.487441
827.000000	17.406964
826.000000	17.333437
825.000000	17.256953
824.000000	17.174247
823.000000	17.096834
822.000000	17.013040
821.000000	16.921592
820.000000	16.848288
819.000000	16.767233
818.000000	16.676252
817.000000	16.594825
816.000000	16.500252
815.000000	16.410740
814.000000	16.330991
813.000000	16.255567
812.000000	16.178762
811.000000	16.081563
810.000000	15.999056
809.000000	15.913094
808.000000	15.832044
807.000000	15.747292
806.000000	15.666025
805.000000	15.568391
804.000000	15.495338
803.000000	15.391998
802.000000	15.310537
801.000000	15.217624
800.000000	15.136960
799.000000	15.049428
798.000000	14.956602
797.000000	14.871402
796.000000	14.787052
795.000000	14.689973
794.000000	14.596801
793.000000	14.512144
792.000000	14.433356
791.000000	14.333249
790.000000	14.237494
789.000000	14.146884
788.000000	14.063250
787.000000	13.970296
786.000000	13.872081
785.000000	13.785574
784.000000	13.685169
783.000000	13.599906
782.000000	13.500519
781.000000	13.424738
780.000000	13.329822
779.000000	13.232790
778.000000	13.136091
777.000000	13.045920
776.000000	12.956770
775.000000	12.861980
774.000000	12.766926
773.000000	12.677402
772.000000	12.587493
771.000000	12.487515
770.000000	12.394732
769.000000	12.288115
768.000000	12.205751
767.000000	12.111429
766.000000	12.015123
765.000000	11.915459
764.000000	11.831394
763.000000	11.737655
762.000000	11.638545
761.000000	11.545942
760.000000	11.454829
759.000000	11.353893
758.000000	11.269308
757.000000	11.170255
756.000000	11.078316
755.000000	10.984314
754.000000	10.890115
753.000000	10.789893
752.000000	10.704976
751.000000	10.609544
750.000000	10.516824
749.000000	10.417732
748.000000	10.333789
747.000000	10.239241
746.000000	10.142787
745.000000	10.058990
744.000000	9.965135
743.000000	9.870306
742.000000	9.773895
741.000000	9.687694
740.000000	9.595156
739.000000	9.503832
738.000000	9.407362
737.000000	9.315061
736.000000	9.229927
735.000000	9.138478
734.000000	9.051033
733.000000	8.958784
732.000000	8.870296
731.000000	8.782146
730.000000	8.693152
729.000000	8.607743
728.000000	8.516790
727.000000	8.431375
726.000000	8.344786
725.000000	8.256295
724.000000	8.172475
723.000000	8.085554
722.000000	8.000026
721.000000	7.915134
720.000000	7.832228
719.000000	7.749160
718.000000	7.664945
717.000000	7.582743
716.000000	7.504100
715.000000	7.425495
714.000000	7.346624
713.000000	7.265025
712.000000	7.181425
711.000000	7.106301
710.000000	7.029891
709.000000	6.953285
708.000000	6.874542
707.000000	6.797960
706.000000	6.726631
705.000000	6.657910
704.000000	6.582772
703.000000	6.514177
702.000000	6.439262
701.000000	6.371952
700.000000	6.303888
699.000000	6.234872
698.000000	6.163569
697.000000	6.103607
696.000000	6.039717
695.000000	5.975430
694.000000	5.918070
693.000000	5.856096
692.000000	5.795262
691.000000	5.732207
690.000000	5.674638
689.000000	5.614842
688.000000	5.557573
687.000000	5.506249
686.000000	5.454144
685.000000	5.403614
684.000000	5.353948
683.000000	5.303975
682.000000	5.258346
681.000000	5.212804
680.000000	5.167162
679.000000	5.126104
678.000000	5.085493
677.000000	5.046251
676.000000	5.008092
675.000000	4.972940
674.000000	4.937953
673.000000	4.905340
672.000000	4.872043
671.000000	4.842843
670.000000	4.817457
669.000000	4.792277
668.000000	4.763973
667.000000	4.741085
666.000000	4.723565
665.000000	4.706258
664.000000	4.684975
663.000000	4.671123
662.000000	4.661480
661.000000	4.651316
660.000000	4.640652
659.000000	4.631544
658.000000	4.627479
657.000000	4.624610
656.000000	4.626216
655.000000	4.629060
654.000000	4.632530
653.000000	4.637358
652.000000	4.645308
651.000000	4.655208
650.000000	4.669168
649.000000	4.684470
648.000000	4.701298
647.000000	4.723825
646.000000	4.745527
645.000000	4.769272
644.000000	4.795689
643.000000	4.824720
642.000000	4.858317
641.000000	4.891805
640.000000	4.929458
639.000000	4.968137
638.000000	5.008340
637.000000	5.052909
636.000000	5.100144
635.000000	5.150668
634.000000	5.202801
633.000000	5.257699
632.000000	5.315256
631.000000	5.378943
630.000000	5.441459
629.000000	5.505686
628.000000	5.573195
627.000000	5.645048
626.000000	5.718134
625.000000	5.796141
624.000000	5.874243
623.000000	5.957536
622.000000	6.043797
621.000000	6.128703
620.000000	6.221422
619.000000	6.317424
618.000000	6.413455
617.000000	6.512877
616.000000	6.617358
615.000000	6.718650
614.000000	6.821468
613.000000	6.932478
612.000000	7.048093
611.000000	7.167820
610.000000	7.287021
609.000000	7.406925
608.000000	7.532312
607.000000	7.659865
606.000000	7.787704
605.000000	7.919948
604.000000	8.058709
603.000000	8.198996
602.000000	8.339948
601.000000	8.485585
600.000000	8.637006
599.000000	8.786120
598.000000	8.938680
597.000000	9.091845
596.000000	9.247747
595.000000	9.407180
594.000000	9.570896
593.000000	9.736331
592.000000	9.904540
591.000000	10.080971
590.000000	10.255810
589.000000	10.432666
588.000000	10.611091
587.000000	10.793345
586.000000	10.975205
585.000000	11.160127
584.000000	11.347735
583.000000	11.538819
582.000000	11.734706
581.000000	11.935135
580.000000	12.137320
579.000000	12.340290
578.000000	12.543940
577.000000	12.751794
576.000000	12.956129
575.000000	13.167109
574.000000	13.377737
573.000000	13.590292
572.000000	13.809123
571.000000	14.024554
570.000000	14.242538
569.000000	14.470240
568.000000	14.693429
567.000000	14.916006
566.000000	15.138331
565.000000	15.368295
564.000000	15.602925
563.000000	15.826169
562.000000	16.057047
561.000000	16.306069
560.000000	16.559807
559.000000	16.799482
558.000000	17.036571
557.000000	17.279094
556.000000	17.524180
555.000000	17.765593
554.000000	18.005279
553.000000	18.248863
552.000000	18.495479
551.000000	18.741008
550.000000	18.992964
549.000000	19.248421
548.000000	19.497854
547.000000	19.750324
546.000000	19.999662
545.000000	20.251472
544.000000	20.501541
543.000000	20.753782
542.000000	21.008289
541.000000	21.257702
540.000000	21.518530
539.000000	21.777169
538.000000	22.025490
537.000000	22.280231
536.000000	22.529450
535.000000	22.781609
534.000000	23.034605
533.000000	23.278901
532.000000	23.540259
531.000000	23.803981
530.000000	24.054310
529.000000	24.306793
528.000000	24.565342
527.000000	24.812278
526.000000	25.052105
525.000000	25.301680
524.000000	25.549122
523.000000	25.794232
522.000000	26.037161
521.000000	26.281423
520.000000	26.535775
519.000000	26.780883
518.000000	27.015929
517.000000	27.252238
516.000000	27.493213
515.000000	27.726040
514.000000	27.952052
513.000000	28.180573
512.000000	28.410396
511.000000	28.635236
510.000000	28.862542
509.000000	29.088954
508.000000	29.304339
507.000000	29.516604
506.000000	29.723691
505.000000	29.931988
504.000000	30.144490
503.000000	30.353477
502.000000	30.555135
501.000000	30.758793
500.000000	30.952668
499.000000	31.138354
498.000000	31.346830
497.000000	31.548631
496.000000	31.730326
495.000000	31.918907
494.000000	32.120916
493.000000	32.316262
492.000000	32.501038
491.000000	32.678181
490.000000	32.868290
489.000000	33.054283
488.000000	33.222126
487.000000	33.377667
486.000000	33.527221
485.000000	33.691007
484.000000	33.855558
483.000000	34.018905
482.000000	34.167330
481.000000	34.297628
480.000000	34.436220
479.000000	34.574345
478.000000	34.688891
477.000000	34.795959
476.000000	34.908297
475.000000	35.016224
474.000000	35.119112
473.000000	35.218030
472.000000	35.307590
471.000000	35.394621
470.000000	35.469572
469.000000	35.544010
468.000000	35.617478
467.000000	35.673059
466.000000	35.728115
465.000000	35.774022
464.000000	35.825810
463.000000	35.868730
462.000000	35.893101
461.000000	35.913514
460.000000	35.928609
459.000000	35.929794
458.000000	35.940886
457.000000	35.934862
456.000000	35.924208
455.000000	35.899157
454.000000	35.883016
453.000000	35.850828
452.000000	35.796547
451.000000	35.743505
450.000000	35.687171
449.000000	35.616187
448.000000	35.536071
447.000000	35.442265
446.000000	35.344145
445.000000	35.239504
444.000000	35.119274
443.000000	34.998171
442.000000	34.868088
441.000000	34.709861
440.000000	34.535402
439.000000	34.363647
438.000000	34.182391
437.000000	33.992879
436.000000	33.783575
435.000000	33.565465
434.000000	33.347351
433.000000	33.103743
432.000000	32.844882
431.000000	32.554768
430.000000	32.250564
429.000000	31.957088
428.000000	31.637965
427.000000	31.297170
426.000000	30.957884
425.000000	30.596348
424.000000	30.226037
423.000000	29.827547
422.000000	29.414157
421.000000	28.995199
420.000000	28.539757
419.000000	28.077936
418.000000	27.601279
417.000000	27.113872
416.000000	26.605961
415.000000	26.073076
414.000000	25.516072
413.000000	24.954632
412.000000	24.368858
411.000000	23.769590
410.000000	23.152181
409.000000	22.523426
408.000000	21.862904
407.000000	21.195782
406.000000	20.507807
405.000000	19.806145
404.000000	19.102941
403.000000	18.379476
402.000000	17.639296
401.000000	16.878265
400.000000	16.122418
399.000000	15.363894
398.000000	14.609178
397.000000	13.843940
396.000000	13.085165
395.000000	12.339282
394.000000	11.606742
393.000000	10.885158
392.000000	10.180034
391.000000	9.496836
390.000000	8.850675
389.000000	8.246546
388.000000	7.683814
387.000000	7.172795
386.000000	6.726441
385.000000	6.345081
384.000000	6.028538
383.000000	5.801021
382.000000	5.643508
381.000000	5.592171
380.000000	5.635028
379.000000	5.792010
378.000000	6.185335
377.000000	6.609943
376.000000	7.134279
375.000000	7.761236
374.000000	8.468255
373.000000	9.302356
372.000000	10.234970
371.000000	11.264586
370.000000	12.403952
369.000000	13.613549
368.000000	14.924974
367.000000	16.250571
366.000000	17.686157
365.000000	19.104554
364.000000	20.567366
363.000000	22.015245
362.000000	23.429264
361.000000	24.870177
360.000000	26.265743
359.000000	27.610802
358.000000	28.925956
357.000000	30.125740
356.000000	31.267574
355.000000	32.343919
354.000000	33.310846
353.000000	34.230296
352.000000	34.998442
351.000000	35.703790
350.000000	36.273328
