PE UV       SUBTECH     SPECTRUM    ASCII       PEDS        4.00        
   -1
180627-8 top omega.Sample.asc
18/06/27
22:37:56.00
18/06/27
22:37:56.00
Analyst
34s15gmt test
350.000000
1
Lambda 950
950L1201053
PerkinElmer UV WinLab 6.0.4.0738 / 1.61.00 Lambda 900

0
0
3350/16 889.8/4
0
0
VIS
1
1
1
CommonBeamDepol,RBeamAtt,SBeamAtt,universal reflectance
0
0
0
0
Program
 
0
3350/0.28 889.8/0.28
0
0
0
 
 
 
0
 
889.8
150
889.8
Front
31
on
3350/S:100 3350/R:100
 
0
0
0
 
0
 
 
 
0
 
 
0
0
8.0
4.00
4.00
False
False
202L1112213
 
0
0


0
0
#HDR
-1
-1
#GR
nm
%R
1.0
0.0
880.000000
-1.000000
531
8
36.301874
4.439066
#DATA
880.000000	21.324167
879.000000	21.263552
878.000000	21.197113
877.000000	21.119988
876.000000	21.062462
875.000000	21.011685
874.000000	20.945829
873.000000	20.875745
872.000000	20.813797
871.000000	20.747125
870.000000	20.665614
869.000000	20.600308
868.000000	20.561827
867.000000	20.481637
866.000000	20.407560
865.000000	20.338768
864.000000	20.275901
863.000000	20.192697
862.000000	20.136679
861.000000	20.059237
860.000000	19.998745
859.000000	19.931372
858.000000	19.861330
857.000000	19.789296
856.000000	19.702927
855.000000	19.637928
854.000000	19.582167
853.000000	19.493327
852.000000	19.419697
851.000000	19.356651
850.000000	19.269385
849.000000	19.203514
848.000000	19.133770
847.000000	19.051276
846.000000	18.975513
845.000000	18.909833
844.000000	18.854436
843.000000	18.736521
842.000000	18.675560
841.000000	18.603831
840.000000	18.531389
839.000000	18.452294
838.000000	18.375818
837.000000	18.289528
836.000000	18.226224
835.000000	18.127143
834.000000	18.048862
833.000000	17.992027
832.000000	17.899391
831.000000	17.834844
830.000000	17.752655
829.000000	17.663884
828.000000	17.563278
827.000000	17.510392
826.000000	17.421076
825.000000	17.352361
824.000000	17.258194
823.000000	17.202900
822.000000	17.094501
821.000000	17.018610
820.000000	16.930905
819.000000	16.868797
818.000000	16.778058
817.000000	16.684173
816.000000	16.598689
815.000000	16.524051
814.000000	16.448152
813.000000	16.362376
812.000000	16.268105
811.000000	16.178379
810.000000	16.089124
809.000000	16.011025
808.000000	15.929653
807.000000	15.828402
806.000000	15.759691
805.000000	15.661859
804.000000	15.577573
803.000000	15.487936
802.000000	15.403645
801.000000	15.320382
800.000000	15.226953
799.000000	15.135908
798.000000	15.040306
797.000000	14.960402
796.000000	14.868396
795.000000	14.777604
794.000000	14.690509
793.000000	14.602493
792.000000	14.501015
791.000000	14.407242
790.000000	14.316716
789.000000	14.235696
788.000000	14.140260
787.000000	14.049544
786.000000	13.955072
785.000000	13.869431
784.000000	13.774524
783.000000	13.680310
782.000000	13.579164
781.000000	13.499617
780.000000	13.398426
779.000000	13.308565
778.000000	13.215988
777.000000	13.119088
776.000000	13.030921
775.000000	12.933185
774.000000	12.841211
773.000000	12.742255
772.000000	12.657214
771.000000	12.557795
770.000000	12.459920
769.000000	12.371278
768.000000	12.272569
767.000000	12.175702
766.000000	12.080761
765.000000	11.978462
764.000000	11.895315
763.000000	11.791540
762.000000	11.709150
761.000000	11.607202
760.000000	11.511544
759.000000	11.419587
758.000000	11.317200
757.000000	11.222006
756.000000	11.125140
755.000000	11.037789
754.000000	10.942937
753.000000	10.847277
752.000000	10.752592
751.000000	10.661888
750.000000	10.568087
749.000000	10.470533
748.000000	10.374066
747.000000	10.280986
746.000000	10.187145
745.000000	10.088759
744.000000	9.994640
743.000000	9.904184
742.000000	9.814233
741.000000	9.716873
740.000000	9.621926
739.000000	9.527629
738.000000	9.434876
737.000000	9.342236
736.000000	9.256085
735.000000	9.161308
734.000000	9.067506
733.000000	8.980040
732.000000	8.887681
731.000000	8.791791
730.000000	8.702296
729.000000	8.609922
728.000000	8.520471
727.000000	8.428596
726.000000	8.343536
725.000000	8.254704
724.000000	8.167351
723.000000	8.079234
722.000000	7.993726
721.000000	7.906705
720.000000	7.818272
719.000000	7.731966
718.000000	7.645213
717.000000	7.562358
716.000000	7.481600
715.000000	7.402314
714.000000	7.317460
713.000000	7.233642
712.000000	7.149535
711.000000	7.072474
710.000000	6.990713
709.000000	6.910495
708.000000	6.830571
707.000000	6.756265
706.000000	6.679546
705.000000	6.604307
704.000000	6.530151
703.000000	6.455901
702.000000	6.382113
701.000000	6.313370
700.000000	6.243491
699.000000	6.167624
698.000000	6.099504
697.000000	6.026062
696.000000	5.963884
695.000000	5.897679
694.000000	5.832077
693.000000	5.768975
692.000000	5.708117
691.000000	5.644279
690.000000	5.581548
689.000000	5.518916
688.000000	5.459883
687.000000	5.402032
686.000000	5.344999
685.000000	5.295695
684.000000	5.244938
683.000000	5.193311
682.000000	5.141544
681.000000	5.092861
680.000000	5.046054
679.000000	4.999293
678.000000	4.956580
677.000000	4.917034
676.000000	4.874593
675.000000	4.833255
674.000000	4.797629
673.000000	4.762777
672.000000	4.730200
671.000000	4.696475
670.000000	4.664905
669.000000	4.633858
668.000000	4.607626
667.000000	4.584865
666.000000	4.562068
665.000000	4.539585
664.000000	4.519892
663.000000	4.504667
662.000000	4.490150
661.000000	4.474920
660.000000	4.465974
659.000000	4.455188
658.000000	4.446257
657.000000	4.441648
656.000000	4.439066
655.000000	4.439151
654.000000	4.441145
653.000000	4.445727
652.000000	4.452656
651.000000	4.460900
650.000000	4.469642
649.000000	4.485954
648.000000	4.498087
647.000000	4.517951
646.000000	4.539831
645.000000	4.563768
644.000000	4.588765
643.000000	4.613800
642.000000	4.643010
641.000000	4.675162
640.000000	4.713832
639.000000	4.751194
638.000000	4.790825
637.000000	4.835920
636.000000	4.880285
635.000000	4.925698
634.000000	4.977456
633.000000	5.032799
632.000000	5.090295
631.000000	5.147872
630.000000	5.208087
629.000000	5.273678
628.000000	5.343206
627.000000	5.414347
626.000000	5.486756
625.000000	5.560085
624.000000	5.639378
623.000000	5.722311
622.000000	5.806914
621.000000	5.893394
620.000000	5.982802
619.000000	6.078435
618.000000	6.175125
617.000000	6.274446
616.000000	6.374221
615.000000	6.479822
614.000000	6.587972
613.000000	6.700003
612.000000	6.813157
611.000000	6.931796
610.000000	7.050827
609.000000	7.172680
608.000000	7.299638
607.000000	7.427269
606.000000	7.557890
605.000000	7.689159
604.000000	7.823103
603.000000	7.964953
602.000000	8.111238
601.000000	8.256505
600.000000	8.403433
599.000000	8.553995
598.000000	8.710628
597.000000	8.869579
596.000000	9.027333
595.000000	9.185951
594.000000	9.348400
593.000000	9.514430
592.000000	9.687826
591.000000	9.867264
590.000000	10.046339
589.000000	10.224829
588.000000	10.404586
587.000000	10.586409
586.000000	10.770742
585.000000	10.959776
584.000000	11.147752
583.000000	11.335278
582.000000	11.532375
581.000000	11.737384
580.000000	11.941333
579.000000	12.144447
578.000000	12.353012
577.000000	12.561069
576.000000	12.768439
575.000000	12.976051
574.000000	13.188733
573.000000	13.404716
572.000000	13.625687
571.000000	13.845959
570.000000	14.067083
569.000000	14.293742
568.000000	14.523119
567.000000	14.748979
566.000000	14.972926
565.000000	15.202017
564.000000	15.430656
563.000000	15.664060
562.000000	15.909561
561.000000	16.160829
560.000000	16.409953
559.000000	16.656755
558.000000	16.902156
557.000000	17.141796
556.000000	17.387702
555.000000	17.629563
554.000000	17.878551
553.000000	18.131250
552.000000	18.380981
551.000000	18.631526
550.000000	18.884057
549.000000	19.135604
548.000000	19.390035
547.000000	19.641994
546.000000	19.899996
545.000000	20.149074
544.000000	20.396439
543.000000	20.653999
542.000000	20.918081
541.000000	21.180635
540.000000	21.439439
539.000000	21.701123
538.000000	21.953433
537.000000	22.212104
536.000000	22.464722
535.000000	22.717837
534.000000	22.976862
533.000000	23.242434
532.000000	23.503498
531.000000	23.759535
530.000000	24.018894
529.000000	24.277862
528.000000	24.529849
527.000000	24.785024
526.000000	25.040442
525.000000	25.285268
524.000000	25.543777
523.000000	25.804008
522.000000	26.047330
521.000000	26.293853
520.000000	26.547913
519.000000	26.800441
518.000000	27.059094
517.000000	27.299379
516.000000	27.522264
515.000000	27.758226
514.000000	27.990829
513.000000	28.227597
512.000000	28.471317
511.000000	28.701599
510.000000	28.925512
509.000000	29.148270
508.000000	29.377009
507.000000	29.596164
506.000000	29.809235
505.000000	30.027669
504.000000	30.241387
503.000000	30.445015
502.000000	30.654353
501.000000	30.871512
500.000000	31.070013
499.000000	31.276020
498.000000	31.479127
497.000000	31.674416
496.000000	31.873299
495.000000	32.055413
494.000000	32.258188
493.000000	32.460525
492.000000	32.648514
491.000000	32.840488
490.000000	33.033424
489.000000	33.226733
488.000000	33.409471
487.000000	33.570174
486.000000	33.729240
485.000000	33.888345
484.000000	34.064599
483.000000	34.236458
482.000000	34.390704
481.000000	34.540039
480.000000	34.669621
479.000000	34.796974
478.000000	34.929336
477.000000	35.045405
476.000000	35.156672
475.000000	35.262839
474.000000	35.379820
473.000000	35.478542
472.000000	35.565605
471.000000	35.659277
470.000000	35.746135
469.000000	35.830792
468.000000	35.906228
467.000000	35.979710
466.000000	36.040198
465.000000	36.086830
464.000000	36.136408
463.000000	36.180417
462.000000	36.220484
461.000000	36.242571
460.000000	36.255256
459.000000	36.292554
458.000000	36.301874
457.000000	36.287858
456.000000	36.281993
455.000000	36.263768
454.000000	36.252637
453.000000	36.216411
452.000000	36.171978
451.000000	36.117276
450.000000	36.064127
449.000000	36.006065
448.000000	35.921547
447.000000	35.844259
446.000000	35.751098
445.000000	35.639252
444.000000	35.522544
443.000000	35.384291
442.000000	35.242279
441.000000	35.102912
440.000000	34.934229
439.000000	34.778458
438.000000	34.583996
437.000000	34.378386
436.000000	34.174124
435.000000	33.955451
434.000000	33.711328
433.000000	33.475563
432.000000	33.219929
431.000000	32.930698
430.000000	32.630722
429.000000	32.326246
428.000000	32.004600
427.000000	31.676352
426.000000	31.321439
425.000000	30.961602
424.000000	30.573118
423.000000	30.162541
422.000000	29.738388
421.000000	29.284135
420.000000	28.842405
419.000000	28.376495
418.000000	27.869710
417.000000	27.378833
416.000000	26.861298
415.000000	26.323083
414.000000	25.745174
413.000000	25.176368
412.000000	24.561091
411.000000	23.938487
410.000000	23.285301
409.000000	22.621841
408.000000	21.959535
407.000000	21.270255
406.000000	20.566010
405.000000	19.857986
404.000000	19.124304
403.000000	18.371793
402.000000	17.606211
401.000000	16.835760
400.000000	16.048549
399.000000	15.260228
398.000000	14.469917
397.000000	13.685267
396.000000	12.910843
395.000000	12.148851
394.000000	11.393600
393.000000	10.649400
392.000000	9.927534
391.000000	9.218902
390.000000	8.553143
389.000000	7.923711
388.000000	7.350192
387.000000	6.831250
386.000000	6.381452
385.000000	5.981996
384.000000	5.671464
383.000000	5.443166
382.000000	5.303748
381.000000	5.250769
380.000000	5.320924
379.000000	5.494136
378.000000	5.926607
377.000000	6.424214
376.000000	6.941755
375.000000	7.602445
374.000000	8.336951
373.000000	9.223855
372.000000	10.203670
371.000000	11.311969
370.000000	12.479208
369.000000	13.749524
368.000000	15.087250
367.000000	16.474633
366.000000	17.899728
365.000000	19.351852
364.000000	20.852355
363.000000	22.292832
362.000000	23.712455
361.000000	25.160856
360.000000	26.573093
359.000000	27.899588
358.000000	29.184131
357.000000	30.414370
356.000000	31.517364
355.000000	32.546321
354.000000	33.502137
353.000000	34.360231
352.000000	35.140730
351.000000	35.782178
350.000000	36.285651
