PE UV       SUBTECH     SPECTRUM    ASCII       PEDS        4.00        
   -1
180621-10T.Sample.asc
18/06/21
21:23:41.00
18/06/21
21:23:41.00
Analyst
MOXSIO2 test
400.000000
1
Lambda 950
950L1201053
PerkinElmer UV WinLab 6.0.4.0738 / 1.61.00 Lambda 900

0
0
3350/5 889.8/2
0
0
VIS
1
1
1
CommonBeamDepol,RBeamAtt,SBeamAtt,universal reflectance
0
0
0
0
Program
 
0
3350/0.48 889.8/0.24
0
0
0
 
 
 
0
 
889.8
150
889.8
Front
28
on
S:100 R:100
 
0
0
0
 
0
 
 
 
0
 
 
0
0
45.0
4.00
4.00
False
True
202L1112213
 
0
19


0
0
#HDR
-1
-1
#GR
nm
%T
1.0
0.0
700.000000
-2.000000
151
8
95.748839
93.056512
#DATA
700.000000	94.193253
698.000000	94.265517
696.000000	94.367985
694.000000	94.378090
692.000000	94.501001
690.000000	94.656163
688.000000	94.589275
686.000000	94.730820
684.000000	94.773956
682.000000	94.800141
680.000000	94.858701
678.000000	94.893678
676.000000	94.994069
674.000000	95.130449
672.000000	95.010361
670.000000	95.223590
668.000000	95.215173
666.000000	95.263231
664.000000	95.242490
662.000000	95.255957
660.000000	95.391206
658.000000	95.463722
656.000000	95.410715
654.000000	95.401038
652.000000	95.521252
650.000000	95.500211
648.000000	95.589725
646.000000	95.523265
644.000000	95.637614
642.000000	95.633870
640.000000	95.632296
638.000000	95.595620
636.000000	95.664151
634.000000	95.643141
632.000000	95.673891
630.000000	95.636993
628.000000	95.692021
626.000000	95.593771
624.000000	95.722305
622.000000	95.706984
620.000000	95.695385
618.000000	95.700202
616.000000	95.688843
614.000000	95.715871
612.000000	95.697614
610.000000	95.723803
608.000000	95.748839
606.000000	95.734217
604.000000	95.684065
602.000000	95.664287
600.000000	95.599472
598.000000	95.675468
596.000000	95.551009
594.000000	95.579594
592.000000	95.577986
590.000000	95.605132
588.000000	95.654269
586.000000	95.642668
584.000000	95.632278
582.000000	95.629366
580.000000	95.605443
578.000000	95.606296
576.000000	95.611776
574.000000	95.529007
572.000000	95.515359
570.000000	95.548020
568.000000	95.483766
566.000000	95.437358
564.000000	95.484976
562.000000	95.510528
560.000000	95.505287
558.000000	95.473627
556.000000	95.469426
554.000000	95.479431
552.000000	95.421310
550.000000	95.468220
548.000000	95.388917
546.000000	95.442820
544.000000	95.425993
542.000000	95.438909
540.000000	95.382917
538.000000	95.443150
536.000000	95.360228
534.000000	95.485930
532.000000	95.409699
530.000000	95.432746
528.000000	95.415684
526.000000	95.385558
524.000000	95.371661
522.000000	95.378376
520.000000	95.406238
518.000000	95.379287
516.000000	95.423230
514.000000	95.378922
512.000000	95.424750
510.000000	95.393733
508.000000	95.457243
506.000000	95.445932
504.000000	95.456547
502.000000	95.550473
500.000000	95.435973
498.000000	95.410408
496.000000	95.479192
494.000000	95.501124
492.000000	95.505479
490.000000	95.452565
488.000000	95.535807
486.000000	95.533642
484.000000	95.497467
482.000000	95.512281
480.000000	95.505072
478.000000	95.467224
476.000000	95.519421
474.000000	95.511705
472.000000	95.513232
470.000000	95.521866
468.000000	95.530232
466.000000	95.499813
464.000000	95.563831
462.000000	95.536222
460.000000	95.486576
458.000000	95.495460
456.000000	95.372991
454.000000	95.336301
452.000000	95.467005
450.000000	95.479207
448.000000	95.415325
446.000000	95.415750
444.000000	95.375438
442.000000	95.436277
440.000000	95.381864
438.000000	95.331192
436.000000	95.387250
434.000000	95.324657
432.000000	95.238335
430.000000	95.269934
428.000000	95.185721
426.000000	95.223983
424.000000	95.131291
422.000000	94.983758
420.000000	94.956899
418.000000	94.879987
416.000000	94.834720
414.000000	94.705564
412.000000	94.612750
410.000000	94.353262
408.000000	94.235440
406.000000	93.874760
404.000000	93.736481
402.000000	93.405094
400.000000	93.056512
