PE UV       SUBTECH     SPECTRUM    ASCII       PEDS        4.00        
   -1
180621-9T.Sample.asc
18/06/21
20:09:18.00
18/06/21
20:09:18.00
Analyst
MOXSIO2 test
400.000000
1
Lambda 950
950L1201053
PerkinElmer UV WinLab 6.0.4.0738 / 1.61.00 Lambda 900

0
0
3350/5 889.8/2
0
0
VIS
1
1
1
CommonBeamDepol,RBeamAtt,SBeamAtt,universal reflectance
0
0
0
0
Program
 
0
3350/0.48 889.8/0.24
0
0
0
 
 
 
0
 
889.8
150
889.8
Front
28
on
S:100 R:100
 
0
0
0
 
0
 
 
 
0
 
 
0
0
45.0
4.00
4.00
False
True
202L1112213
 
0
19


0
0
#HDR
-1
-1
#GR
nm
%T
1.0
0.0
700.000000
-2.000000
151
8
91.747671
78.799254
#DATA
700.000000	87.253900
698.000000	87.055851
696.000000	86.952555
694.000000	86.752335
692.000000	86.636799
690.000000	86.518181
688.000000	86.380639
686.000000	86.237364
684.000000	86.015728
682.000000	85.958996
680.000000	85.827233
678.000000	85.660260
676.000000	85.470552
674.000000	85.388078
672.000000	85.253460
670.000000	85.105449
668.000000	85.017485
666.000000	84.870459
664.000000	84.685781
662.000000	84.625219
660.000000	84.424776
658.000000	84.242866
656.000000	84.107841
654.000000	84.031726
652.000000	83.836569
650.000000	83.766877
648.000000	83.565600
646.000000	83.454950
644.000000	83.351999
642.000000	83.207315
640.000000	83.050507
638.000000	82.946284
636.000000	82.781457
634.000000	82.693892
632.000000	82.474727
630.000000	82.417730
628.000000	82.309151
626.000000	82.149940
624.000000	82.027699
622.000000	81.921114
620.000000	81.828203
618.000000	81.721599
616.000000	81.563371
614.000000	81.429740
612.000000	81.329599
610.000000	81.171064
608.000000	81.105650
606.000000	80.979242
604.000000	80.863713
602.000000	80.745025
600.000000	80.665039
598.000000	80.532861
596.000000	80.462553
594.000000	80.338903
592.000000	80.223114
590.000000	80.219789
588.000000	80.056098
586.000000	80.065872
584.000000	79.813582
582.000000	79.830794
580.000000	79.698387
578.000000	79.638748
576.000000	79.566617
574.000000	79.497065
572.000000	79.377010
570.000000	79.369601
568.000000	79.266683
566.000000	79.287114
564.000000	79.155581
562.000000	79.087116
560.000000	79.057069
558.000000	79.034399
556.000000	78.977067
554.000000	78.954348
552.000000	78.878399
550.000000	78.853428
548.000000	78.916007
546.000000	78.857263
544.000000	78.809334
542.000000	78.820156
540.000000	78.804546
538.000000	78.838676
536.000000	78.799254
534.000000	78.815984
532.000000	78.844432
530.000000	78.915916
528.000000	78.944599
526.000000	78.923752
524.000000	78.970428
522.000000	79.032288
520.000000	79.118303
518.000000	79.205401
516.000000	79.245869
514.000000	79.377446
512.000000	79.416255
510.000000	79.531522
508.000000	79.608937
506.000000	79.748880
504.000000	79.871409
502.000000	79.976774
500.000000	80.121178
498.000000	80.236544
496.000000	80.483365
494.000000	80.586406
492.000000	80.826307
490.000000	80.999403
488.000000	81.196289
486.000000	81.457834
484.000000	81.701429
482.000000	81.948049
480.000000	82.226065
478.000000	82.470248
476.000000	82.693026
474.000000	82.996780
472.000000	83.307494
470.000000	83.572566
468.000000	83.936738
466.000000	84.231549
464.000000	84.571518
462.000000	84.842090
460.000000	85.197904
458.000000	85.562730
456.000000	85.961892
454.000000	86.227552
452.000000	86.627555
450.000000	87.012337
448.000000	87.344517
446.000000	87.753059
444.000000	88.136350
442.000000	88.499799
440.000000	88.860309
438.000000	89.244157
436.000000	89.491236
434.000000	89.846629
432.000000	90.212670
430.000000	90.449977
428.000000	90.683735
426.000000	90.990285
424.000000	91.169432
422.000000	91.385735
420.000000	91.521569
418.000000	91.725513
416.000000	91.747671
414.000000	91.728722
412.000000	91.731131
410.000000	91.678837
408.000000	91.577074
406.000000	91.350950
404.000000	91.174576
402.000000	90.854182
400.000000	90.503808
