PE UV       SUBTECH     SPECTRUM    ASCII       PEDS        4.00        
   -1
180621-11T.Sample.asc
18/06/21
22:40:18.00
18/06/21
22:40:18.00
Analyst
MOXSIO2 test
400.000000
1
Lambda 950
950L1201053
PerkinElmer UV WinLab 6.0.4.0738 / 1.61.00 Lambda 900

0
0
3350/5 889.8/2
0
0
VIS
1
1
1
CommonBeamDepol,RBeamAtt,SBeamAtt,universal reflectance
0
0
0
0
Program
 
0
3350/0.48 889.8/0.24
0
0
0
 
 
 
0
 
889.8
150
889.8
Front
28
on
S:100 R:100
 
0
0
0
 
0
 
 
 
0
 
 
0
0
45.0
4.00
4.00
False
True
202L1112213
 
0
19


0
0
#HDR
-1
-1
#GR
nm
%T
1.0
0.0
700.000000
-2.000000
151
8
95.752288
93.079844
#DATA
700.000000	93.979243
698.000000	93.967565
696.000000	94.181584
694.000000	94.158957
692.000000	94.361629
690.000000	94.332684
688.000000	94.434610
686.000000	94.549978
684.000000	94.486495
682.000000	94.667352
680.000000	94.703763
678.000000	94.821683
676.000000	94.811367
674.000000	94.895120
672.000000	94.919945
670.000000	94.994311
668.000000	95.046075
666.000000	95.043083
664.000000	95.166865
662.000000	95.172826
660.000000	95.205322
658.000000	95.214122
656.000000	95.335593
654.000000	95.332869
652.000000	95.409326
650.000000	95.397329
648.000000	95.388958
646.000000	95.460788
644.000000	95.584198
642.000000	95.488882
640.000000	95.502070
638.000000	95.550091
636.000000	95.618201
634.000000	95.657179
632.000000	95.572191
630.000000	95.593920
628.000000	95.634021
626.000000	95.677775
624.000000	95.660302
622.000000	95.732092
620.000000	95.684692
618.000000	95.652934
616.000000	95.669024
614.000000	95.703428
612.000000	95.672416
610.000000	95.752288
608.000000	95.636422
606.000000	95.655902
604.000000	95.723411
602.000000	95.745890
600.000000	95.627216
598.000000	95.652669
596.000000	95.581763
594.000000	95.663485
592.000000	95.615659
590.000000	95.668367
588.000000	95.588389
586.000000	95.581537
584.000000	95.599037
582.000000	95.512815
580.000000	95.560105
578.000000	95.522451
576.000000	95.483168
574.000000	95.491962
572.000000	95.507242
570.000000	95.498240
568.000000	95.480100
566.000000	95.458987
564.000000	95.450365
562.000000	95.448730
560.000000	95.376037
558.000000	95.427773
556.000000	95.375945
554.000000	95.413103
552.000000	95.366948
550.000000	95.374000
548.000000	95.314322
546.000000	95.323792
544.000000	95.337078
542.000000	95.296228
540.000000	95.324970
538.000000	95.301345
536.000000	95.295128
534.000000	95.319314
532.000000	95.278509
530.000000	95.355931
528.000000	95.309961
526.000000	95.269810
524.000000	95.305133
522.000000	95.282570
520.000000	95.294197
518.000000	95.273149
516.000000	95.261119
514.000000	95.317694
512.000000	95.319602
510.000000	95.279102
508.000000	95.348169
506.000000	95.335069
504.000000	95.363820
502.000000	95.390141
500.000000	95.339659
498.000000	95.257357
496.000000	95.436424
494.000000	95.419316
492.000000	95.377316
490.000000	95.334391
488.000000	95.351350
486.000000	95.394098
484.000000	95.411238
482.000000	95.474241
480.000000	95.407903
478.000000	95.447872
476.000000	95.444765
474.000000	95.425581
472.000000	95.425590
470.000000	95.479646
468.000000	95.454891
466.000000	95.489526
464.000000	95.457827
462.000000	95.460502
460.000000	95.466664
458.000000	95.437982
456.000000	95.345198
454.000000	95.313568
452.000000	95.422121
450.000000	95.340462
448.000000	95.359717
446.000000	95.305401
444.000000	95.341188
442.000000	95.350821
440.000000	95.386635
438.000000	95.328748
436.000000	95.307540
434.000000	95.307556
432.000000	95.294639
430.000000	95.181215
428.000000	95.102787
426.000000	95.032684
424.000000	95.133103
422.000000	95.001889
420.000000	94.975279
418.000000	94.822988
416.000000	94.733961
414.000000	94.682798
412.000000	94.565009
410.000000	94.376530
408.000000	94.278074
406.000000	93.975024
404.000000	93.716103
402.000000	93.382744
400.000000	93.079844
