PE UV       SUBTECH     SPECTRUM    ASCII       PEDS        4.00        
   -1
180618-7.Sample.asc
18/06/18
20:21:34.00
18/06/18
20:21:34.00
Analyst
MOXSIO2 test
400.000000
1
Lambda 950
950L1201053
PerkinElmer UV WinLab 6.0.4.0738 / 1.61.00 Lambda 900

0
0
3350/5 889.8/2
0
0
VIS
1
1
1
CommonBeamDepol,RBeamAtt,SBeamAtt,universal reflectance
0
0
0
0
Program
 
0
3350/0.48 889.8/0.12
0
0
0
 
 
 
0
 
889.8
150
889.8
Front
28
on
S:100 R:100
 
0
0
0
 
0
 
 
 
0
 
 
0
0
45.0
4.00
4.00
False
True
202L1112213
 
0
19


0
0
#HDR
-1
-1
#GR
nm
%T
1.0
0.0
700.000000
-2.000000
151
8
95.534201
91.378802
#DATA
700.000000	93.856478
698.000000	93.945183
696.000000	94.011243
694.000000	93.947988
692.000000	94.066543
690.000000	94.200949
688.000000	94.210365
686.000000	94.236673
684.000000	94.233610
682.000000	94.389911
680.000000	94.447134
678.000000	94.421352
676.000000	94.565599
674.000000	94.616040
672.000000	94.553845
670.000000	94.614722
668.000000	94.729166
666.000000	94.673596
664.000000	94.766883
662.000000	94.830210
660.000000	94.881915
658.000000	94.904787
656.000000	94.857493
654.000000	94.952910
652.000000	95.020281
650.000000	95.132602
648.000000	95.093171
646.000000	95.008183
644.000000	95.138159
642.000000	95.036318
640.000000	94.983432
638.000000	95.117240
636.000000	95.092899
634.000000	95.007754
632.000000	95.141260
630.000000	95.131384
628.000000	95.138112
626.000000	95.247826
624.000000	95.057798
622.000000	95.030621
620.000000	95.214131
618.000000	95.219346
616.000000	95.117127
614.000000	95.169746
612.000000	95.185379
610.000000	95.074644
608.000000	95.215574
606.000000	95.120285
604.000000	95.105657
602.000000	95.082734
600.000000	95.209202
598.000000	95.131702
596.000000	95.127445
594.000000	95.139639
592.000000	95.130897
590.000000	95.169242
588.000000	95.089967
586.000000	95.022099
584.000000	95.051036
582.000000	95.101645
580.000000	95.079884
578.000000	95.120304
576.000000	95.175830
574.000000	95.158499
572.000000	95.096015
570.000000	95.074561
568.000000	95.118136
566.000000	95.185503
564.000000	95.100321
562.000000	95.098858
560.000000	95.102839
558.000000	94.995830
556.000000	95.079252
554.000000	95.119428
552.000000	95.113097
550.000000	95.113900
548.000000	95.095973
546.000000	95.066307
544.000000	95.127390
542.000000	95.142355
540.000000	95.115081
538.000000	95.143376
536.000000	95.076518
534.000000	95.076395
532.000000	95.192733
530.000000	95.122154
528.000000	95.139005
526.000000	95.230263
524.000000	95.228593
522.000000	95.160708
520.000000	95.200442
518.000000	95.254449
516.000000	95.201687
514.000000	95.168402
512.000000	95.208298
510.000000	95.235039
508.000000	95.270087
506.000000	95.190039
504.000000	95.240406
502.000000	95.248199
500.000000	95.367360
498.000000	95.222031
496.000000	95.534201
494.000000	95.307281
492.000000	95.457212
490.000000	95.215299
488.000000	95.196883
486.000000	95.380592
484.000000	95.191589
482.000000	95.309767
480.000000	95.211779
478.000000	95.324194
476.000000	95.282884
474.000000	95.227510
472.000000	95.251077
470.000000	95.256311
468.000000	95.255846
466.000000	95.193415
464.000000	95.201396
462.000000	95.148569
460.000000	95.252302
458.000000	95.221369
456.000000	95.209863
454.000000	95.407234
452.000000	95.123939
450.000000	95.179760
448.000000	95.096307
446.000000	95.043742
444.000000	95.132230
442.000000	95.068052
440.000000	95.107752
438.000000	95.146558
436.000000	95.091974
434.000000	94.822569
432.000000	94.777446
430.000000	94.895490
428.000000	94.887209
426.000000	94.796417
424.000000	94.731457
422.000000	94.669293
420.000000	94.576846
418.000000	94.322827
416.000000	94.174374
414.000000	93.955629
412.000000	93.789235
410.000000	93.447345
408.000000	93.226933
406.000000	92.853160
404.000000	92.462473
402.000000	91.754817
400.000000	91.378802
